# (https://omlc.ogi.edu)
# 1 W Point Source Heating in Infinite Isotropic Scattering Medium
# CPU version, adapted for PEAGPGPU by Gustavo Castellano and Nicolas Wolovick
# Scattering =   20.000/cm
# Absorption =    2.000/cm
# Photons    = 10000000
#
# 44.070252 seconds
# 226.910433 K photons per second
# Radius	Heat
# [microns]	[W/cm^3]	Error
     0	 20606.44629	    17.48396
    50	  3320.43917	     2.57965
   100	  1351.44773	     0.97258
   150	   751.80493	     0.50730
   200	   487.54702	     0.31075
   250	   345.05499	     0.20928
   300	   258.51706	     0.14999
   350	   201.73246	     0.11244
   400	   161.96059	     0.08709
   450	   132.98136	     0.06921
   500	   110.95653	     0.05612
   550	    94.05427	     0.04628
   600	    80.38808	     0.03867
   650	    69.43293	     0.03270
   700	    60.45529	     0.02793
   750	    52.97492	     0.02407
   800	    46.68546	     0.02090
   850	    41.31433	     0.01827
   900	    36.71100	     0.01606
   950	    32.77512	     0.01420
  1000	    29.31411	     0.01261
  1050	    26.31865	     0.01125
  1100	    23.69212	     0.01008
  1150	    21.37132	     0.00906
  1200	    19.36555	     0.00818
  1250	    17.55145	     0.00740
  1300	    15.92028	     0.00672
  1350	    14.47003	     0.00611
  1400	    13.18579	     0.00558
  1450	    12.02290	     0.00510
  1500	    10.98599	     0.00467
  1550	    10.06120	     0.00429
  1600	     9.20065	     0.00394
  1650	     8.44334	     0.00363
  1700	     7.74155	     0.00335
  1750	     7.10882	     0.00309
  1800	     6.53866	     0.00286
  1850	     6.01579	     0.00265
  1900	     5.53724	     0.00246
  1950	     5.10261	     0.00229
  2000	     4.70112	     0.00213
  2050	     4.34105	     0.00198
  2100	     4.00282	     0.00185
  2150	     3.69401	     0.00172
  2200	     3.41453	     0.00161
  2250	     3.15810	     0.00151
  2300	     2.91916	     0.00141
  2350	     2.70227	     0.00132
  2400	     2.50444	     0.00124
  2450	     2.31892	     0.00116
  2500	     2.14713	     0.00109
  2550	     1.99290	     0.00102
  2600	     1.84817	     0.00096
  2650	     1.71308	     0.00090
  2700	     1.58822	     0.00085
  2750	     1.47573	     0.00080
  2800	     1.37037	     0.00075
  2850	     1.27300	     0.00071
  2900	     1.18557	     0.00067
  2950	     1.10172	     0.00063
  3000	     1.02392	     0.00059
  3050	     0.95121	     0.00056
  3100	     0.88651	     0.00053
  3150	     0.82412	     0.00050
  3200	     0.76728	     0.00047
  3250	     0.71476	     0.00044
  3300	     0.66651	     0.00042
  3350	     0.62051	     0.00039
  3400	     0.57842	     0.00037
  3450	     0.53959	     0.00035
  3500	     0.50402	     0.00033
  3550	     0.46922	     0.00032
  3600	     0.43781	     0.00030
  3650	     0.40946	     0.00028
  3700	     0.38183	     0.00027
  3750	     0.35697	     0.00025
  3800	     0.33344	     0.00024
  3850	     0.31035	     0.00023
  3900	     0.28999	     0.00022
  3950	     0.27099	     0.00021
  4000	     0.25311	     0.00019
  4050	     0.23649	     0.00018
  4100	     0.22064	     0.00017
  4150	     0.20666	     0.00017
  4200	     0.19302	     0.00016
  4250	     0.18031	     0.00015
  4300	     0.16891	     0.00014
  4350	     0.15779	     0.00013
  4400	     0.14785	     0.00013
  4450	     0.13810	     0.00012
  4500	     0.12940	     0.00011
  4550	     0.12134	     0.00011
  4600	     0.11354	     0.00010
  4650	     0.10612	     0.00010
  4700	     0.09949	     0.00009
  4750	     0.09338	     0.00009
  4800	     0.08708	     0.00008
  4850	     0.08177	     0.00008
  4900	     0.07649	     0.00008
  4950	     0.07177	     0.00007
# extra	     0.01596
# (https://omlc.ogi.edu)
# 1 W Point Source Heating in Infinite Isotropic Scattering Medium
# CPU version, adapted for PEAGPGPU by Gustavo Castellano and Nicolas Wolovick
# Scattering =   20.000/cm
# Absorption =    2.000/cm
# Photons    =   100000
#
# 0.460974 seconds
# 216.932200 K photons per second
# Radius	Heat
# [microns]	[W/cm^3]	Error
     0	 20435.00244	   175.58127
    50	  3315.54053	    26.04319
   100	  1313.16550	     9.70350
   150	   746.19909	     5.10720
   200	   482.10217	     3.11499
   250	   341.82190	     2.09725
   300	   255.35341	     1.49906
   350	   204.73837	     1.13316
   400	   161.48177	     0.87018
   450	   133.13930	     0.69127
   500	   110.71295	     0.56097
   550	    93.76440	     0.46199
   600	    80.08851	     0.38598
   650	    69.49334	     0.32633
   700	    60.03781	     0.27757
   750	    53.12157	     0.23991
   800	    46.53599	     0.20758
   850	    41.10989	     0.18112
   900	    36.35593	     0.15901
   950	    33.09224	     0.14132
  1000	    29.83896	     0.12610
  1050	    26.38346	     0.11206
  1100	    23.91926	     0.10050
  1150	    21.42783	     0.09021
  1200	    19.44658	     0.08136
  1250	    17.54325	     0.07352
  1300	    16.01625	     0.06703
  1350	    14.60162	     0.06098
  1400	    13.27573	     0.05573
  1450	    12.15521	     0.05085
  1500	    11.12330	     0.04670
  1550	    10.24948	     0.04310
  1600	     9.27548	     0.03928
  1650	     8.49901	     0.03629
  1700	     7.81131	     0.03346
  1750	     7.21452	     0.03085
  1800	     6.64185	     0.02870
  1850	     6.11678	     0.02668
  1900	     5.56283	     0.02469
  1950	     5.15868	     0.02300
  2000	     4.76562	     0.02139
  2050	     4.39325	     0.01997
  2100	     4.01209	     0.01848
  2150	     3.72098	     0.01724
  2200	     3.45519	     0.01614
  2250	     3.17615	     0.01504
  2300	     2.97171	     0.01417
  2350	     2.72529	     0.01321
  2400	     2.53249	     0.01239
  2450	     2.35456	     0.01162
  2500	     2.15169	     0.01081
  2550	     2.01526	     0.01018
  2600	     1.86392	     0.00956
  2650	     1.74908	     0.00902
  2700	     1.60641	     0.00845
  2750	     1.47593	     0.00793
  2800	     1.39099	     0.00751
  2850	     1.29529	     0.00706
  2900	     1.20237	     0.00669
  2950	     1.11729	     0.00630
  3000	     1.03986	     0.00592
  3050	     0.96276	     0.00551
  3100	     0.90824	     0.00531
  3150	     0.84514	     0.00498
  3200	     0.79083	     0.00473
  3250	     0.73362	     0.00445
  3300	     0.68523	     0.00420
  3350	     0.63608	     0.00399
  3400	     0.58757	     0.00373
  3450	     0.54974	     0.00351
  3500	     0.49788	     0.00329
  3550	     0.48144	     0.00317
  3600	     0.45649	     0.00304
  3650	     0.41766	     0.00285
  3700	     0.39040	     0.00272
  3750	     0.36568	     0.00259
  3800	     0.33325	     0.00239
  3850	     0.31419	     0.00229
  3900	     0.29679	     0.00218
  3950	     0.27377	     0.00204
  4000	     0.25886	     0.00197
  4050	     0.24250	     0.00185
  4100	     0.22138	     0.00174
  4150	     0.20925	     0.00166
  4200	     0.19560	     0.00158
  4250	     0.17969	     0.00147
  4300	     0.17111	     0.00142
  4350	     0.15752	     0.00134
  4400	     0.14991	     0.00128
  4450	     0.14012	     0.00120
  4500	     0.13327	     0.00117
  4550	     0.12251	     0.00108
  4600	     0.11463	     0.00104
  4650	     0.10831	     0.00098
  4700	     0.09816	     0.00092
  4750	     0.09261	     0.00088
  4800	     0.08657	     0.00084
  4850	     0.08077	     0.00079
  4900	     0.07844	     0.00076
  4950	     0.07177	     0.00072
# extra	     0.02343
# (https://omlc.ogi.edu)
# 1 W Point Source Heating in Infinite Isotropic Scattering Medium
# CPU version, adapted for PEAGPGPU by Gustavo Castellano and Nicolas Wolovick
# Scattering =   20.000/cm
# Absorption =    2.000/cm
# Photons    =  1000000
#
# 4.635329 seconds
# 215.734409 K photons per second
# Radius	Heat
# [microns]	[W/cm^3]	Error
     0	 20355.31201	    55.42030
    50	  3284.78195	     8.20056
   100	  1335.39289	     3.09175
   150	   745.83050	     1.61307
   200	   482.60997	     0.98561
   250	   342.68378	     0.66342
   300	   256.56348	     0.47471
   350	   200.81779	     0.35568
   400	   160.92698	     0.27488
   450	   132.84260	     0.21848
   500	   110.50857	     0.17673
   550	    93.74785	     0.14577
   600	    80.14111	     0.12171
   650	    69.37871	     0.10286
   700	    60.45822	     0.08783
   750	    53.10965	     0.07577
   800	    46.74939	     0.06571
   850	    41.49610	     0.05747
   900	    36.81484	     0.05049
   950	    32.87267	     0.04460
  1000	    29.51606	     0.03962
  1050	    26.42403	     0.03531
  1100	    23.86749	     0.03169
  1150	    21.47767	     0.02844
  1200	    19.50013	     0.02570
  1250	    17.75847	     0.02327
  1300	    16.08340	     0.02114
  1350	    14.55797	     0.01919
  1400	    13.29612	     0.01755
  1450	    12.16026	     0.01605
  1500	    11.12573	     0.01473
  1550	    10.16683	     0.01353
  1600	     9.31072	     0.01244
  1650	     8.49687	     0.01144
  1700	     7.80619	     0.01057
  1750	     7.18741	     0.00977
  1800	     6.59026	     0.00906
  1850	     6.07660	     0.00841
  1900	     5.57230	     0.00779
  1950	     5.14883	     0.00725
  2000	     4.75893	     0.00676
  2050	     4.37554	     0.00629
  2100	     4.04190	     0.00587
  2150	     3.74482	     0.00548
  2200	     3.44672	     0.00511
  2250	     3.19053	     0.00478
  2300	     2.94559	     0.00447
  2350	     2.73838	     0.00419
  2400	     2.52596	     0.00392
  2450	     2.34169	     0.00367
  2500	     2.16588	     0.00344
  2550	     2.01546	     0.00323
  2600	     1.86916	     0.00304
  2650	     1.73623	     0.00286
  2700	     1.61361	     0.00269
  2750	     1.49371	     0.00252
  2800	     1.39102	     0.00238
  2850	     1.29531	     0.00224
  2900	     1.20442	     0.00211
  2950	     1.12137	     0.00200
  3000	     1.03895	     0.00187
  3050	     0.96990	     0.00177
  3100	     0.90150	     0.00167
  3150	     0.83835	     0.00158
  3200	     0.78292	     0.00149
  3250	     0.72917	     0.00141
  3300	     0.67767	     0.00133
  3350	     0.63113	     0.00125
  3400	     0.58744	     0.00118
  3450	     0.54744	     0.00112
  3500	     0.51317	     0.00106
  3550	     0.48033	     0.00101
  3600	     0.44775	     0.00095
  3650	     0.41666	     0.00090
  3700	     0.38953	     0.00085
  3750	     0.36275	     0.00081
  3800	     0.33727	     0.00076
  3850	     0.31545	     0.00072
  3900	     0.29352	     0.00068
  3950	     0.27526	     0.00065
  4000	     0.25700	     0.00062
  4050	     0.24016	     0.00058
  4100	     0.22426	     0.00055
  4150	     0.21103	     0.00053
  4200	     0.19689	     0.00050
  4250	     0.18338	     0.00047
  4300	     0.17105	     0.00045
  4350	     0.15957	     0.00042
  4400	     0.15157	     0.00041
  4450	     0.14110	     0.00038
  4500	     0.13118	     0.00036
  4550	     0.12268	     0.00034
  4600	     0.11481	     0.00033
  4650	     0.10794	     0.00031
  4700	     0.10098	     0.00030
  4750	     0.09395	     0.00028
  4800	     0.08836	     0.00027
  4850	     0.08276	     0.00025
  4900	     0.07702	     0.00024
  4950	     0.07290	     0.00023
# extra	     0.02218
